Real	Imag	frequency
		frequency [kHz]
-5830,000	-2811,000	0,000
-10880,000	-5913,000	1,000
-11881,000	-5293,000	2,000
-16195,000	-3960,000	3,000
-15786,000	-1822,000	4,000
-13354,000	-2336,000	5,000
-14972,000	-2939,000	6,000
-16197,000	829,000	7,000
-16879,000	5195,000	8,000
-21232,000	7421,000	9,000
-15308,000	8871,000	10,000
-14621,000	13016,000	11,000
-13084,000	13611,000	12,000
-11097,000	14745,000	13,000
-7282,000	12019,000	14,000
-6960,000	15596,000	15,000
-6373,000	19437,000	16,000
-3715,000	18831,000	17,000
-3814,000	19877,000	18,000
-677,000	18992,000	19,000
1022,000	18845,000	20,000
5756,000	23342,000	21,000
2984,000	25079,000	22,000
8570,000	22430,000	23,000
13018,000	18902,000	24,000
17038,000	17905,000	25,000
19313,000	14178,000	26,000
20601,000	14618,000	27,000
23380,000	12072,000	28,000
24996,000	6350,000	29,000
26399,000	8393,000	30,000
29506,000	5411,000	31,000
33041,000	2605,000	32,000
32835,000	-3077,000	33,000
32739,000	-5654,000	34,000
30510,000	-9557,000	35,000
26021,000	-10960,000	36,000
25255,000	-14486,000	37,000
28840,000	-21235,000	38,000
25750,000	-27582,000	39,000
22590,000	-29285,000	40,000
20922,000	-30371,000	41,000
15632,000	-35538,000	42,000
10244,000	-39304,000	43,000
9972,000	-41496,000	44,000
5159,000	-42907,000	45,000
-4516,000	-41170,000	46,000
-10529,000	-42949,000	47,000
-14674,000	-44300,000	48,000
-20023,000	-42219,000	49,000
-27615,000	-39531,000	50,000
-30207,000	-42621,000	51,000
-34142,000	-39357,000	52,000
-42041,000	-34145,000	53,000
-46332,000	-30907,000	54,000
-50267,000	-25130,000	55,000
-55026,000	-14615,000	56,000
-57508,000	-9469,000	57,000
-63037,000	-6012,000	58,000
-59810,000	2716,000	59,000
-63210,000	9254,000	60,000
-64187,000	19434,000	61,000
-67442,000	29216,000	62,000
-60672,000	35754,000	63,000
-59516,000	44065,000	64,000
-56012,000	51785,000	65,000
-49163,000	60194,000	66,000
-45561,000	71817,000	67,000
-37330,000	78075,000	68,000
-27149,000	83918,000	69,000
-19786,000	85624,000	70,000
-5964,000	91214,000	71,000
7216,000	91402,000	72,000
18838,000	93134,000	73,000
29903,000	94994,000	74,000
43910,000	92036,000	75,000
58172,000	89224,000	76,000
68953,000	83699,000	77,000
77841,000	75791,000	78,000
90949,000	68781,000	79,000
99080,000	55533,000	80,000
108863,000	43466,000	81,000
116530,000	31759,000	82,000
121888,000	15905,000	83,000
126042,000	-650,000	84,000
127865,000	-20030,000	85,000
124245,000	-34349,000	86,000
122490,000	-51356,000	87,000
110871,000	-68609,000	88,000
95813,000	-83482,000	89,000
83271,000	-99678,000	90,000
62850,000	-112361,000	91,000
48077,000	-117840,000	92,000
31692,000	-124570,000	93,000
13844,000	-128788,000	94,000
-2889,000	-124531,000	95,000
-21898,000	-119824,000	96,000
-33160,000	-115579,000	97,000
-48937,000	-105481,000	98,000
-61792,000	-97003,000	99,000
-72690,000	-87403,000	100,000
-79144,000	-75672,000	101,000
-84828,000	-63658,000	102,000
-86341,000	-54608,000	103,000
-91769,000	-37953,000	104,000
-91915,000	-25750,000	105,000
-86980,000	-13255,000	106,000
-90314,000	-2442,000	107,000
-85021,000	10651,000	108,000
-78842,000	17875,000	109,000
-75886,000	25594,000	110,000
-70545,000	30435,000	111,000
-62849,000	39649,000	112,000
-57148,000	44404,000	113,000
-49361,000	49672,000	114,000
-39505,000	53695,000	115,000
-32769,000	54343,000	116,000
-26350,000	58398,000	117,000
-16102,000	58625,000	118,000
-9728,000	57574,000	119,000
-2856,000	55904,000	120,000
1459,000	53153,000	121,000
7983,000	50795,000	122,000
14377,000	48403,000	123,000
16128,000	46105,000	124,000
21325,000	39242,000	125,000
26220,000	34675,000	126,000
28720,000	30890,000	127,000
32102,000	27016,000	128,000
35068,000	22278,000	129,000
34038,000	15878,000	130,000
35462,000	13424,000	131,000
36549,000	10317,000	132,000
35038,000	5765,000	133,000
31902,000	-2056,000	134,000
32456,000	-37,000	135,000
32524,000	-6184,000	136,000
27138,000	-12253,000	137,000
22623,000	-12891,000	138,000
24078,000	-15832,000	139,000
19641,000	-17334,000	140,000
16705,000	-19805,000	141,000
16955,000	-17874,000	142,000
10265,000	-19587,000	143,000
6582,000	-23479,000	144,000
4194,000	-19531,000	145,000
-505,000	-20276,000	146,000
1042,000	-22114,000	147,000
-1778,000	-21366,000	148,000
-2429,000	-21053,000	149,000
-4859,000	-16665,000	150,000
-2805,000	-17029,000	151,000
-4180,000	-17111,000	152,000
-7563,000	-13762,000	153,000
-10060,000	-11112,000	154,000
-12865,000	-11667,000	155,000
-9173,000	-9123,000	156,000
-14021,000	-7608,000	157,000
-12903,000	-3594,000	158,000
-15342,000	-2277,000	159,000
-12934,000	-2501,000	160,000
-11195,000	-2790,000	161,000
-11960,000	-2046,000	162,000
-9684,000	-185,000	163,000
-12701,000	2747,000	164,000
-10137,000	3287,000	165,000
-9809,000	6249,000	166,000
-7903,000	5314,000	167,000
-6068,000	8798,000	168,000
-8191,000	9072,000	169,000
-4212,000	7277,000	170,000
-3242,000	6873,000	171,000
-3100,000	9646,000	172,000
-1661,000	8368,000	173,000
659,000	7026,000	174,000
1103,000	6987,000	175,000
-213,000	6722,000	176,000
885,000	6296,000	177,000
2461,000	5345,000	178,000
3539,000	6275,000	179,000
2921,000	8362,000	180,000
1734,000	5859,000	181,000
4292,000	4386,000	182,000
7450,000	3947,000	183,000
7652,000	2448,000	184,000
6478,000	1215,000	185,000
6958,000	884,000	186,000
8148,000	593,000	187,000
3060,000	-121,000	188,000
5539,000	-384,000	189,000
4104,000	-4496,000	190,000
2944,000	-2678,000	191,000
2091,000	389,000	192,000
5001,000	158,000	193,000
5463,000	-1725,000	194,000
2542,000	-2526,000	195,000
2107,000	-3798,000	196,000
5160,000	-1479,000	197,000
2845,000	-5012,000	198,000
863,000	-4848,000	199,000
1387,000	-5267,000	200,000
-966,000	-6156,000	201,000
-809,000	-3844,000	202,000
-4000,000	-4170,000	203,000
-4982,000	1459,000	204,000
-2902,000	-3978,000	205,000
-1835,000	-5175,000	206,000
-4966,000	-4279,000	207,000
-2537,000	-1100,000	208,000
-1849,000	-1765,000	209,000
-2617,000	-2189,000	210,000
-5694,000	245,000	211,000
-2832,000	-132,000	212,000
-1403,000	-1616,000	213,000
-2653,000	1297,000	214,000
-2409,000	2871,000	215,000
-4960,000	1055,000	216,000
-7014,000	1931,000	217,000
-894,000	4231,000	218,000
-729,000	2989,000	219,000
-3344,000	1395,000	220,000
-3073,000	997,000	221,000
488,000	727,000	222,000
-102,000	3291,000	223,000
3537,000	3677,000	224,000
1930,000	4359,000	225,000
-458,000	3837,000	226,000
2239,000	5240,000	227,000
2572,000	5807,000	228,000
1653,000	2108,000	229,000
2658,000	4394,000	230,000
1044,000	4827,000	231,000
-2019,000	4048,000	232,000
-2083,000	2515,000	233,000
3062,000	-259,000	234,000
1800,000	1758,000	235,000
3914,000	-226,000	236,000
419,000	-336,000	237,000
801,000	387,000	238,000
3280,000	89,000	239,000
3181,000	4031,000	240,000
4119,000	38,000	241,000
2625,000	-817,000	242,000
476,000	-82,000	243,000
-379,000	-686,000	244,000
340,000	-1395,000	245,000
-823,000	-2782,000	246,000
601,000	-1432,000	247,000
-1566,000	-2815,000	248,000
-35,000	-2912,000	249,000
-2062,000	-3805,000	250,000
-576,000	-3222,000	251,000
859,000	-4542,000	252,000
262,000	-3131,000	253,000
-291,000	-1335,000	254,000
1188,000	-1126,000	255,000
2230,000	-3403,000	256,000
1118,000	-2156,000	257,000
1125,000	175,000	258,000
1399,000	1720,000	259,000
1,000	578,000	260,000
-1324,000	3019,000	261,000
-310,000	-2333,000	262,000
-2472,000	-55,000	263,000
-2387,000	1188,000	264,000
-3781,000	-4887,000	265,000
-1009,000	1263,000	266,000
1483,000	623,000	267,000
-571,000	626,000	268,000
-1289,000	3588,000	269,000
-550,000	127,000	270,000
2281,000	1699,000	271,000
716,000	609,000	272,000
299,000	547,000	273,000
1669,000	-58,000	274,000
1010,000	-3555,000	275,000
191,000	-2644,000	276,000
1430,000	-704,000	277,000
-1516,000	603,000	278,000
2381,000	3979,000	279,000
898,000	769,000	280,000
296,000	-490,000	281,000
-780,000	-63,000	282,000
-3490,000	60,000	283,000
500,000	895,000	284,000
2873,000	-2392,000	285,000
621,000	-2473,000	286,000
-861,000	-1127,000	287,000
435,000	2626,000	288,000
-1689,000	629,000	289,000
953,000	-804,000	290,000
294,000	-267,000	291,000
-1868,000	-149,000	292,000
-2248,000	325,000	293,000
-1493,000	-2254,000	294,000
266,000	-1329,000	295,000
2535,000	2171,000	296,000
2702,000	1825,000	297,000
1902,000	-707,000	298,000
-845,000	-543,000	299,000
893,000	1926,000	300,000
-1114,000	-349,000	301,000
-3698,000	-1557,000	302,000
-1038,000	752,000	303,000
294,000	1101,000	304,000
-2558,000	-1133,000	305,000
-377,000	-317,000	306,000
677,000	-140,000	307,000
-4021,000	-1723,000	308,000
-1288,000	-641,000	309,000
-760,000	242,000	310,000
-314,000	-1442,000	311,000
-301,000	-1211,000	312,000
-1506,000	-1833,000	313,000
-2278,000	-2465,000	314,000
1079,000	-2200,000	315,000
1994,000	-2541,000	316,000
49,000	2576,000	317,000
1094,000	81,000	318,000
-754,000	84,000	319,000
2191,000	3508,000	320,000
-921,000	351,000	321,000
-2132,000	-352,000	322,000
-3045,000	1290,000	323,000
-1024,000	4467,000	324,000
-477,000	2980,000	325,000
2758,000	594,000	326,000
-2764,000	844,000	327,000
362,000	-1401,000	328,000
-1568,000	288,000	329,000
-764,000	786,000	330,000
1246,000	-2447,000	331,000
415,000	843,000	332,000
-1976,000	1848,000	333,000
-1332,000	2666,000	334,000
-1040,000	1667,000	335,000
1385,000	-39,000	336,000
3121,000	-1715,000	337,000
660,000	-40,000	338,000
-498,000	1286,000	339,000
-2136,000	284,000	340,000
870,000	791,000	341,000
-613,000	563,000	342,000
-744,000	-276,000	343,000
-3229,000	-2931,000	344,000
-3017,000	-352,000	345,000
-2860,000	-444,000	346,000
-4364,000	-2564,000	347,000
-2220,000	518,000	348,000
-1521,000	61,000	349,000
-3726,000	-1581,000	350,000
-1377,000	-1901,000	351,000
-1485,000	49,000	352,000
-1961,000	1,000	353,000
-2678,000	2651,000	354,000
-2147,000	-2633,000	355,000
-3726,000	-1227,000	356,000
-1192,000	-85,000	357,000
-121,000	1510,000	358,000
539,000	-1698,000	359,000
2136,000	-909,000	360,000
1105,000	1,000	361,000
298,000	-1770,000	362,000
-1955,000	279,000	363,000
-1807,000	-1200,000	364,000
-643,000	2195,000	365,000
-2510,000	2818,000	366,000
-687,000	1142,000	367,000
-3219,000	-3274,000	368,000
-2953,000	-843,000	369,000
-746,000	-318,000	370,000
1064,000	2315,000	371,000
2921,000	545,000	372,000
-3480,000	-1646,000	373,000
-3661,000	2925,000	374,000
-1603,000	277,000	375,000
105,000	1958,000	376,000
-125,000	-2473,000	377,000
-371,000	-4295,000	378,000
972,000	1311,000	379,000
1904,000	1822,000	380,000
389,000	2450,000	381,000
55,000	928,000	382,000
119,000	1184,000	383,000
-354,000	-2959,000	384,000
-2931,000	-2362,000	385,000
-264,000	1723,000	386,000
-1025,000	595,000	387,000
-1267,000	1421,000	388,000
511,000	1231,000	389,000
2462,000	2095,000	390,000
3193,000	2020,000	391,000
4321,000	-1180,000	392,000
1714,000	1757,000	393,000
299,000	-1717,000	394,000
1452,000	-237,000	395,000
-204,000	-88,000	396,000
-673,000	2330,000	397,000
-1057,000	-396,000	398,000
-3963,000	-1631,000	399,000
-4184,000	661,000	400,000
-2686,000	-1454,000	401,000
645,000	-205,000	402,000
1323,000	-1246,000	403,000
-76,000	1011,000	404,000
3564,000	-1454,000	405,000
2182,000	1212,000	406,000
3661,000	633,000	407,000
-731,000	-1662,000	408,000
-247,000	-58,000	409,000
2210,000	408,000	410,000
-648,000	-798,000	411,000
-769,000	-461,000	412,000
-348,000	-665,000	413,000
-1737,000	-154,000	414,000
-2356,000	1262,000	415,000
-1530,000	2404,000	416,000
-49,000	916,000	417,000
1255,000	2238,000	418,000
5,000	1209,000	419,000
-2328,000	1252,000	420,000
-4422,000	2878,000	421,000
-1257,000	3712,000	422,000
-336,000	723,000	423,000
-908,000	1591,000	424,000
2136,000	-606,000	425,000
-655,000	-119,000	426,000
-147,000	1900,000	427,000
-2860,000	-167,000	428,000
763,000	-705,000	429,000
1882,000	-1920,000	430,000
2270,000	-1152,000	431,000
1195,000	-3697,000	432,000
-1109,000	-3748,000	433,000
321,000	-625,000	434,000
-650,000	2375,000	435,000
-3028,000	384,000	436,000
-2534,000	1988,000	437,000
1254,000	-2365,000	438,000
-1904,000	169,000	439,000
859,000	2556,000	440,000
-266,000	-658,000	441,000
1232,000	-146,000	442,000
3287,000	1103,000	443,000
2011,000	1924,000	444,000
-676,000	3640,000	445,000
-356,000	1372,000	446,000
-643,000	-2989,000	447,000
-676,000	-2382,000	448,000
-1419,000	-659,000	449,000
416,000	3229,000	450,000
1440,000	3721,000	451,000
2126,000	1531,000	452,000
-1100,000	3829,000	453,000
255,000	918,000	454,000
-3746,000	-1495,000	455,000
-1747,000	-515,000	456,000
-768,000	-1128,000	457,000
-21,000	-690,000	458,000
453,000	-359,000	459,000
1900,000	-2191,000	460,000
2637,000	-258,000	461,000
1468,000	-1581,000	462,000
-485,000	838,000	463,000
-2459,000	-2504,000	464,000
1114,000	1232,000	465,000
1602,000	-1234,000	466,000
1063,000	-1139,000	467,000
1731,000	1792,000	468,000
2956,000	-400,000	469,000
1153,000	169,000	470,000
2972,000	-1263,000	471,000
1516,000	1054,000	472,000
265,000	-3231,000	473,000
504,000	-3893,000	474,000
-2784,000	-2690,000	475,000
-868,000	3952,000	476,000
1003,000	1151,000	477,000
2535,000	594,000	478,000
-560,000	3260,000	479,000
-513,000	2047,000	480,000
792,000	-193,000	481,000
-2019,000	-2118,000	482,000
269,000	333,000	483,000
490,000	886,000	484,000
-1598,000	-399,000	485,000
-2047,000	-447,000	486,000
-264,000	1638,000	487,000
-945,000	-150,000	488,000
2923,000	-1705,000	489,000
708,000	970,000	490,000
-3858,000	761,000	491,000
-2371,000	199,000	492,000
-1820,000	3403,000	493,000
-2344,000	47,000	494,000
74,000	290,000	495,000
-534,000	-455,000	496,000
1503,000	1581,000	497,000
-42,000	2417,000	498,000
1460,000	1085,000	499,000
1515,000	-712,000	500,000
-295,000	-428,000	501,000
321,000	-2018,000	502,000
-1506,000	-2787,000	503,000
-353,000	397,000	504,000
698,000	-1697,000	505,000
-480,000	2939,000	506,000
763,000	2097,000	507,000
2224,000	16,000	508,000
2347,000	1463,000	509,000
-1225,000	178,000	510,000
0,000	0,000	511,000
